SpectraSuite Datei
++++++++++++++++++++++++++++++++++++
Datum: Tue Dec 12 17:04:38 CET 2023
Benutzer: ANU
Dark-Spektrum vorhanden: Nein
Referenz-Spektrum vorhanden: Nein
Zahl der probierten Teilspektren: 1
Spektrometer: USB2G45903
Integrationszeit (usec): 100000 (USB2G45903)
Spektren Durchschnitt berechnet: 1 (USB2G45903)
Boxcar Glättung: 5 (USB2G45903)
Dunkelstromkorrektur: Nein (USB2G45903)
Puls/Lampe aktiviert: Nein (USB2G45903)
Correct for Detector Non-linearity: Nein (USB2G45903)
Streulichtkorrektur: Nein (USB2G45903)
Anzahl Pixel in verarbeitetem Spektrum: 651
>>>>>Begin Processed Spectral Data<<<<<
350,00	143,23
351,00	139,82
352,00	155,15
353,00	143,13
354,00	142,03
355,00	142,67
356,00	142,54
357,00	142,32
358,00	140,48
359,00	140,17
360,00	139,58
361,00	139,35
362,00	139,32
363,00	139,59
364,00	138,87
365,00	139,07
366,00	139,03
367,00	138,90
368,00	139,19
369,00	139,43
370,00	139,40
371,00	140,00
372,00	140,18
373,00	140,28
374,00	140,18
375,00	140,16
376,00	139,87
377,00	139,64
378,00	139,50
379,00	139,56
380,00	139,82
381,00	140,17
382,00	140,20
383,00	140,29
384,00	140,48
385,00	140,53
386,00	140,54
387,00	140,50
388,00	140,50
389,00	140,72
390,00	140,48
391,00	140,26
392,00	139,89
393,00	139,74
394,00	140,28
395,00	140,19
396,00	140,28
397,00	140,21
398,00	140,26
399,00	140,37
400,00	140,43
401,00	139,86
402,00	140,05
403,00	140,26
404,00	140,04
405,00	139,85
406,00	139,72
407,00	139,50
408,00	139,64
409,00	139,93
410,00	139,93
411,00	140,32
412,00	141,07
413,00	140,98
414,00	140,78
415,00	140,83
416,00	140,70
417,00	140,88
418,00	140,34
419,00	140,48
420,00	140,09
421,00	139,99
422,00	138,79
423,00	138,51
424,00	138,78
425,00	138,61
426,00	138,80
427,00	138,81
428,00	138,48
429,00	138,90
430,00	138,57
431,00	138,58
432,00	138,75
433,00	139,14
434,00	139,21
435,00	139,05
436,00	139,71
437,00	139,68
438,00	139,79
439,00	139,98
440,00	140,09
441,00	140,56
442,00	140,56
443,00	140,48
444,00	140,80
445,00	140,77
446,00	140,75
447,00	140,29
448,00	140,07
449,00	139,50
450,00	139,44
451,00	139,56
452,00	139,17
453,00	139,55
454,00	139,89
455,00	139,92
456,00	140,09
457,00	140,17
458,00	140,57
459,00	141,02
460,00	141,40
461,00	141,48
462,00	141,48
463,00	141,66
464,00	140,78
465,00	140,49
466,00	140,48
467,00	140,81
468,00	140,64
469,00	140,30
470,00	140,03
471,00	140,35
472,00	140,45
473,00	140,20
474,00	139,77
475,00	140,38
476,00	140,31
477,00	140,23
478,00	139,91
479,00	140,02
480,00	140,13
481,00	140,22
482,00	139,71
483,00	140,31
484,00	141,11
485,00	141,42
486,00	141,51
487,00	141,96
488,00	142,28
489,00	142,07
490,00	141,64
491,00	141,50
492,00	141,60
493,00	141,56
494,00	141,01
495,00	140,37
496,00	140,27
497,00	140,23
498,00	139,68
499,00	139,30
500,00	139,44
501,00	139,87
502,00	139,79
503,00	139,58
504,00	139,76
505,00	139,58
506,00	139,64
507,00	139,66
508,00	139,72
509,00	140,03
510,00	140,17
511,00	140,41
512,00	140,44
513,00	140,42
514,00	140,63
515,00	140,57
516,00	140,00
517,00	139,90
518,00	139,67
519,00	139,52
520,00	139,45
521,00	139,34
522,00	139,03
523,00	138,94
524,00	138,94
525,00	138,44
526,00	138,53
527,00	139,21
528,00	139,51
529,00	139,53
530,00	139,58
531,00	139,76
532,00	139,76
533,00	140,10
534,00	140,36
535,00	140,55
536,00	141,04
537,00	140,97
538,00	141,06
539,00	141,21
540,00	141,67
541,00	141,88
542,00	141,56
543,00	141,74
544,00	141,67
545,00	141,51
546,00	141,35
547,00	141,09
548,00	140,70
549,00	140,36
550,00	140,26
551,00	139,93
552,00	139,80
553,00	139,99
554,00	139,81
555,00	139,34
556,00	139,33
557,00	139,35
558,00	139,51
559,00	140,04
560,00	139,94
561,00	140,00
562,00	140,06
563,00	140,09
564,00	140,13
565,00	139,78
566,00	140,34
567,00	140,17
568,00	140,54
569,00	140,52
570,00	140,48
571,00	141,10
572,00	140,94
573,00	141,12
574,00	141,13
575,00	140,87
576,00	141,40
577,00	141,37
578,00	141,39
579,00	140,92
580,00	141,50
581,00	141,56
582,00	141,13
583,00	140,73
584,00	140,43
585,00	140,34
586,00	140,65
587,00	140,15
588,00	140,27
589,00	140,49
590,00	140,63
591,00	139,63
592,00	139,32
593,00	139,19
594,00	139,70
595,00	139,93
596,00	140,37
597,00	140,05
598,00	140,70
599,00	139,97
600,00	139,95
601,00	140,02
602,00	140,82
603,00	140,99
604,00	141,54
605,00	140,88
606,00	140,93
607,00	140,62
608,00	140,90
609,00	140,56
610,00	140,90
611,00	140,78
612,00	140,91
613,00	140,56
614,00	140,54
615,00	140,02
616,00	140,25
617,00	140,44
618,00	139,69
619,00	139,36
620,00	139,01
621,00	139,26
622,00	138,20
623,00	137,73
624,00	137,58
625,00	137,16
626,00	137,46
627,00	137,24
628,00	137,16
629,00	137,84
630,00	138,13
631,00	138,45
632,00	137,93
633,00	138,72
634,00	138,90
635,00	139,23
636,00	139,72
637,00	139,37
638,00	139,43
639,00	139,14
640,00	139,14
641,00	139,00
642,00	138,58
643,00	139,36
644,00	139,80
645,00	140,05
646,00	139,85
647,00	139,86
648,00	140,54
649,00	140,88
650,00	141,38
651,00	141,37
652,00	141,41
653,00	141,63
654,00	141,42
655,00	141,42
656,00	141,65
657,00	141,74
658,00	141,59
659,00	141,02
660,00	140,48
661,00	139,98
662,00	139,61
663,00	139,38
664,00	139,60
665,00	139,74
666,00	139,58
667,00	139,07
668,00	138,95
669,00	139,00
670,00	139,46
671,00	140,94
672,00	140,81
673,00	141,27
674,00	141,42
675,00	141,55
676,00	141,01
677,00	141,30
678,00	141,42
679,00	141,31
680,00	141,26
681,00	140,97
682,00	140,05
683,00	140,06
684,00	139,71
685,00	140,24
686,00	140,07
687,00	140,03
688,00	139,69
689,00	139,92
690,00	140,01
691,00	140,37
692,00	140,47
693,00	140,36
694,00	140,76
695,00	141,38
696,00	141,01
697,00	141,02
698,00	141,21
699,00	141,27
700,00	140,87
701,00	140,99
702,00	141,24
703,00	141,32
704,00	141,29
705,00	140,71
706,00	140,19
707,00	139,90
708,00	140,11
709,00	140,18
710,00	140,35
711,00	140,68
712,00	140,63
713,00	140,16
714,00	139,74
715,00	139,89
716,00	140,55
717,00	140,71
718,00	141,10
719,00	140,97
720,00	140,95
721,00	141,11
722,00	141,02
723,00	140,69
724,00	140,58
725,00	140,60
726,00	140,47
727,00	140,04
728,00	140,00
729,00	139,88
730,00	139,78
731,00	139,97
732,00	139,87
733,00	139,65
734,00	139,90
735,00	140,32
736,00	140,29
737,00	140,23
738,00	140,57
739,00	140,57
740,00	140,09
741,00	140,31
742,00	139,94
743,00	139,34
744,00	139,80
745,00	140,10
746,00	139,98
747,00	139,95
748,00	140,30
749,00	140,10
750,00	140,47
751,00	140,95
752,00	140,72
753,00	141,33
754,00	142,12
755,00	142,70
756,00	142,55
757,00	142,77
758,00	143,05
759,00	142,87
760,00	142,71
761,00	142,34
762,00	142,31
763,00	142,51
764,00	142,10
765,00	141,84
766,00	141,15
767,00	140,99
768,00	140,56
769,00	140,78
770,00	140,93
771,00	141,06
772,00	141,00
773,00	141,25
774,00	141,06
775,00	141,12
776,00	140,85
777,00	140,48
778,00	140,82
779,00	140,82
780,00	141,18
781,00	141,53
782,00	141,53
783,00	141,90
784,00	142,04
785,00	142,61
786,00	142,77
787,00	143,05
788,00	143,51
789,00	143,12
790,00	142,90
791,00	142,46
792,00	142,04
793,00	142,13
794,00	141,87
795,00	141,47
796,00	141,05
797,00	141,03
798,00	140,88
799,00	141,07
800,00	140,91
801,00	141,36
802,00	141,19
803,00	141,93
804,00	141,70
805,00	141,61
806,00	141,77
807,00	141,66
808,00	140,90
809,00	140,89
810,00	140,59
811,00	140,57
812,00	140,06
813,00	140,08
814,00	139,35
815,00	139,29
816,00	139,32
817,00	139,01
818,00	139,27
819,00	139,62
820,00	139,65
821,00	139,50
822,00	139,44
823,00	139,74
824,00	139,32
825,00	139,09
826,00	139,58
827,00	139,51
828,00	140,08
829,00	139,97
830,00	140,26
831,00	140,29
832,00	140,11
833,00	140,25
834,00	140,10
835,00	140,49
836,00	140,09
837,00	139,70
838,00	140,00
839,00	139,49
840,00	139,12
841,00	139,15
842,00	138,97
843,00	139,18
844,00	138,95
845,00	139,12
846,00	139,23
847,00	139,84
848,00	139,90
849,00	139,56
850,00	139,63
851,00	139,62
852,00	139,57
853,00	139,84
854,00	139,90
855,00	140,55
856,00	140,70
857,00	140,76
858,00	140,42
859,00	140,46
860,00	141,07
861,00	140,48
862,00	140,71
863,00	140,65
864,00	140,72
865,00	140,58
866,00	140,21
867,00	139,87
868,00	139,94
869,00	140,27
870,00	140,17
871,00	139,58
872,00	140,09
873,00	140,13
874,00	140,43
875,00	141,13
876,00	141,54
877,00	142,13
878,00	142,62
879,00	142,69
880,00	142,76
881,00	142,91
882,00	142,86
883,00	142,64
884,00	142,98
885,00	142,68
886,00	142,29
887,00	142,19
888,00	141,71
889,00	141,12
890,00	140,88
891,00	140,83
892,00	140,73
893,00	141,03
894,00	141,47
895,00	140,73
896,00	140,34
897,00	139,51
898,00	139,02
899,00	139,34
900,00	140,21
901,00	140,48
902,00	140,24
903,00	140,17
904,00	139,95
905,00	139,65
906,00	139,95
907,00	140,51
908,00	140,59
909,00	140,85
910,00	140,42
911,00	139,70
912,00	139,23
913,00	139,50
914,00	139,70
915,00	139,50
916,00	139,75
917,00	140,12
918,00	139,94
919,00	139,94
920,00	139,74
921,00	139,98
922,00	139,96
923,00	140,29
924,00	140,08
925,00	139,96
926,00	140,84
927,00	140,51
928,00	139,93
929,00	139,68
930,00	139,85
931,00	139,86
932,00	139,49
933,00	139,61
934,00	139,44
935,00	139,55
936,00	139,56
937,00	138,78
938,00	139,18
939,00	139,34
940,00	139,41
941,00	139,18
942,00	139,46
943,00	139,51
944,00	139,26
945,00	139,34
946,00	139,45
947,00	139,79
948,00	140,08
949,00	139,71
950,00	140,18
951,00	140,39
952,00	140,79
953,00	140,86
954,00	140,88
955,00	141,42
956,00	141,09
957,00	141,05
958,00	141,09
959,00	140,67
960,00	140,86
961,00	140,39
962,00	140,47
963,00	140,21
964,00	140,13
965,00	141,50
966,00	141,13
967,00	141,24
968,00	141,08
969,00	141,06
970,00	141,20
971,00	141,39
972,00	141,70
973,00	141,33
974,00	141,10
975,00	140,95
976,00	139,85
977,00	139,86
978,00	140,05
979,00	140,22
980,00	140,76
981,00	141,31
982,00	141,41
983,00	141,41
984,00	141,76
985,00	142,36
986,00	141,65
987,00	141,63
988,00	141,60
989,00	141,64
990,00	141,85
991,00	141,00
992,00	140,54
993,00	140,26
994,00	139,84
995,00	139,86
996,00	139,61
997,00	139,89
998,00	140,08
999,00	137,14
1000,00	141,22
>>>>>End Processed Spectral Data<<<<<
